SMPHLD01       1 Bereich
Sample Holder                           
Reference Spectrum                      
Overview                                
1. Bereich: Ueber1   BE
1 Scan     144 ms Dwell-Time    50 eV Pass-Energie   3333 Kanäle
Start  1100.00 eV       Step  0.15 eV
-
-
-
-
-
-
-
-
-
-
-
-
-
-
-
-
-
-
-
-
-
-
-
-
-
-
-
 1100.00   23707
 1099.85   23220
 1099.70   23596
 1099.55   23383
 1099.40   23512
 1099.25   23418
 1099.10   23575
 1098.95   23378
 1098.80   23313
 1098.65   23451
 1098.50   23363
 1098.35   23103
 1098.20   23225
 1098.05   23636
 1097.90   23394
 1097.75   23317
 1097.60   23250
 1097.45   23430
 1097.30   23001
 1097.15   23340
 1097.00   23330
 1096.85   23303
 1096.70   22793
 1096.55   22952
 1096.40   23144
 1096.25   23166
 1096.10   23149
 1095.95   23342
 1095.80   23292
 1095.65   23325
 1095.50   23169
 1095.35   23237
 1095.20   22850
 1095.05   22753
 1094.90   22876
 1094.75   22837
 1094.60   23182
 1094.45   23005
 1094.30   22983
 1094.15   22783
 1094.00   23018
 1093.85   23120
 1093.70   23172
 1093.55   22761
 1093.40   22905
 1093.25   22819
 1093.10   22650
 1092.95   22579
 1092.80   23038
 1092.65   22877
 1092.50   22889
 1092.35   22878
 1092.20   22807
 1092.05   22745
 1091.90   22733
 1091.75   22739
 1091.60   22773
 1091.45   22746
 1091.30   22588
 1091.15   23047
 1091.00   22707
 1090.85   22899
 1090.70   22912
 1090.55   22825
 1090.40   22979
 1090.25   22706
 1090.10   22732
 1089.95   22724
 1089.80   22719
 1089.65   22549
 1089.50   22497
 1089.35   22480
 1089.20   22399
 1089.05   22654
 1088.90   22638
 1088.75   22697
 1088.60   22536
 1088.45   22317
 1088.30   22295
 1088.15   22739
 1088.00   22580
 1087.85   22518
 1087.70   22612
 1087.55   22347
 1087.40   22527
 1087.25   22446
 1087.10   22311
 1086.95   22387
 1086.80   22434
 1086.65   22560
 1086.50   22129
 1086.35   22502
 1086.20   22525
 1086.05   22620
 1085.90   22414
 1085.75   22342
 1085.60   22269
 1085.45   22506
 1085.30   22419
 1085.15   22181
 1085.00   22252
 1084.85   22363
 1084.70   22311
 1084.55   22001
 1084.40   22029
 1084.25   22376
 1084.10   22525
 1083.95   22071
 1083.80   22169
 1083.65   21923
 1083.50   22166
 1083.35   22277
 1083.20   22201
 1083.05   22070
 1082.90   22021
 1082.75   21996
 1082.60   21872
 1082.45   22230
 1082.30   22382
 1082.15   22117
 1082.00   22094
 1081.85   22305
 1081.70   22083
 1081.55   22060
 1081.40   21968
 1081.25   22183
 1081.10   22191
 1080.95   22051
 1080.80   22074
 1080.65   22079
 1080.50   22009
 1080.35   22029
 1080.20   21948
 1080.05   22127
 1079.90   22175
 1079.75   22236
 1079.60   21684
 1079.45   21899
 1079.30   22042
 1079.15   22187
 1079.00   22206
 1078.85   22161
 1078.70   21911
 1078.55   22005
 1078.40   21877
 1078.25   22050
 1078.10   22349
 1077.95   22016
 1077.80   22119
 1077.65   22044
 1077.50   21786
 1077.35   22121
 1077.20   21975
 1077.05   21925
 1076.90   21735
 1076.75   22246
 1076.60   22099
 1076.45   22074
 1076.30   21860
 1076.15   21960
 1076.00   21956
 1075.85   22191
 1075.70   21872
 1075.55   21962
 1075.40   21909
 1075.25   21929
 1075.10   22192
 1074.95   21969
 1074.80   21973
 1074.65   21796
 1074.50   21859
 1074.35   22048
 1074.20   22199
 1074.05   22122
 1073.90   22017
 1073.75   22113
 1073.60   22303
 1073.45   22135
 1073.30   22113
 1073.15   22469
 1073.00   22191
 1072.85   22426
 1072.70   22517
 1072.55   22106
 1072.40   22299
 1072.25   22585
 1072.10   22400
 1071.95   22379
 1071.80   22218
 1071.65   22270
 1071.50   22086
 1071.35   22141
 1071.20   22002
 1071.05   21907
 1070.90   21652
 1070.75   22062
 1070.60   21771
 1070.45   21584
 1070.30   21629
 1070.15   21498
 1070.00   21438
 1069.85   21896
 1069.70   21813
 1069.55   21561
 1069.40   21745
 1069.25   21703
 1069.10   21553
 1068.95   21377
 1068.80   21330
 1068.65   21355
 1068.50   21475
 1068.35   21514
 1068.20   21407
 1068.05   21823
 1067.90   21314
 1067.75   21228
 1067.60   21455
 1067.45   21347
 1067.30   21632
 1067.15   21463
 1067.00   21495
 1066.85   21503
 1066.70   21746
 1066.55   21466
 1066.40   21416
 1066.25   21378
 1066.10   21323
 1065.95   21553
 1065.80   21517
 1065.65   21546
 1065.50   21350
 1065.35   21461
 1065.20   21444
 1065.05   21602
 1064.90   21423
 1064.75   21365
 1064.60   21238
 1064.45   21314
 1064.30   21342
 1064.15   21210
 1064.00   21296
 1063.85   21278
 1063.70   21188
 1063.55   21322
 1063.40   21205
 1063.25   21224
 1063.10   21147
 1062.95   21117
 1062.80   21284
 1062.65   21011
 1062.50   21105
 1062.35   21298
 1062.20   20997
 1062.05   21183
 1061.90   21270
 1061.75   21287
 1061.60   21134
 1061.45   20925
 1061.30   21308
 1061.15   20952
 1061.00   20964
 1060.85   21038
 1060.70   20963
 1060.55   21115
 1060.40   21248
 1060.25   21113
 1060.10   20894
 1059.95   21507
 1059.80   21066
 1059.65   20964
 1059.50   20865
 1059.35   21045
 1059.20   21004
 1059.05   20934
 1058.90   20844
 1058.75   21112
 1058.60   21050
 1058.45   21067
 1058.30   21019
 1058.15   21273
 1058.00   21043
 1057.85   21318
 1057.70   21111
 1057.55   21215
 1057.40   20882
 1057.25   21008
 1057.10   20799
 1056.95   20897
 1056.80   21015
 1056.65   20995
 1056.50   21239
 1056.35   21005
 1056.20   20982
 1056.05   20934
 1055.90   21227
 1055.75   20944
 1055.60   20904
 1055.45   20673
 1055.30   20949
 1055.15   20796
 1055.00   21129
 1054.85   21104
 1054.70   20906
 1054.55   21092
 1054.40   20757
 1054.25   20865
 1054.10   20981
 1053.95   21126
 1053.80   21022
 1053.65   20822
 1053.50   20938
 1053.35   20973
 1053.20   20677
 1053.05   20945
 1052.90   20796
 1052.75   20797
 1052.60   20797
 1052.45   21082
 1052.30   20935
 1052.15   20606
 1052.00   21013
 1051.85   20595
 1051.70   20610
 1051.55   20870
 1051.40   20772
 1051.25   20920
 1051.10   20986
 1050.95   20788
 1050.80   20891
 1050.65   20631
 1050.50   21073
 1050.35   20939
 1050.20   20795
 1050.05   20933
 1049.90   20779
 1049.75   20988
 1049.60   20770
 1049.45   20871
 1049.30   20875
 1049.15   20949
 1049.00   20846
 1048.85   20932
 1048.70   20646
 1048.55   20663
 1048.40   20689
 1048.25   20834
 1048.10   20941
 1047.95   21140
 1047.80   20838
 1047.65   21039
 1047.50   20617
 1047.35   20957
 1047.20   21203
 1047.05   21097
 1046.90   21203
 1046.75   21208
 1046.60   21239
 1046.45   21049
 1046.30   21505
 1046.15   21283
 1046.00   20961
 1045.85   21144
 1045.70   21030
 1045.55   21033
 1045.40   21079
 1045.25   20814
 1045.10   20888
 1044.95   21019
 1044.80   20858
 1044.65   20949
 1044.50   20692
 1044.35   20777
 1044.20   20838
 1044.05   20603
 1043.90   20524
 1043.75   20675
 1043.60   20635
 1043.45   20757
 1043.30   20745
 1043.15   20407
 1043.00   20656
 1042.85   20812
 1042.70   20650
 1042.55   20712
 1042.40   20693
 1042.25   20423
 1042.10   20743
 1041.95   20500
 1041.80   20657
 1041.65   20709
 1041.50   20607
 1041.35   20398
 1041.20   20640
 1041.05   20492
 1040.90   20326
 1040.75   20438
 1040.60   20425
 1040.45   20396
 1040.30   20230
 1040.15   20356
 1040.00   20614
 1039.85   20554
 1039.70   20381
 1039.55   20598
 1039.40   20503
 1039.25   20488
 1039.10   20424
 1038.95   20508
 1038.80   20516
 1038.65   20686
 1038.50   20230
 1038.35   20353
 1038.20   20404
 1038.05   20468
 1037.90   20515
 1037.75   20596
 1037.60   20474
 1037.45   20444
 1037.30   20667
 1037.15   20562
 1037.00   20741
 1036.85   20741
 1036.70   20486
 1036.55   20627
 1036.40   20415
 1036.25   20565
 1036.10   20496
 1035.95   20650
 1035.80   20533
 1035.65   20080
 1035.50   20448
 1035.35   20548
 1035.20   20438
 1035.05   20349
 1034.90   20334
 1034.75   20273
 1034.60   20265
 1034.45   20386
 1034.30   20417
 1034.15   20296
 1034.00   20191
 1033.85   20540
 1033.70   20304
 1033.55   20300
 1033.40   20355
 1033.25   20415
 1033.10   20261
 1032.95   20449
 1032.80   20255
 1032.65   20510
 1032.50   20368
 1032.35   20694
 1032.20   20283
 1032.05   20404
 1031.90   20382
 1031.75   20091
 1031.60   20483
 1031.45   20251
 1031.30   20250
 1031.15   20291
 1031.00   20373
 1030.85   20323
 1030.70   20422
 1030.55   20419
 1030.40   20255
 1030.25   20373
 1030.10   20218
 1029.95   20102
 1029.80   20232
 1029.65   20213
 1029.50   20398
 1029.35   20137
 1029.20   20200
 1029.05   20348
 1028.90   20448
 1028.75   20302
 1028.60   20256
 1028.45   20739
 1028.30   20403
 1028.15   20260
 1028.00   20084
 1027.85   20145
 1027.70   20284
 1027.55   20518
 1027.40   20023
 1027.25   20360
 1027.10   20258
 1026.95   20189
 1026.80   20246
 1026.65   20261
 1026.50   20264
 1026.35   20164
 1026.20   20353
 1026.05   20263
 1025.90   20274
 1025.75   20580
 1025.60   20405
 1025.45   20235
 1025.30   20502
 1025.15   20533
 1025.00   20474
 1024.85   20150
 1024.70   20588
 1024.55   20702
 1024.40   20717
 1024.25   20656
 1024.10   20832
 1023.95   20974
 1023.80   20796
 1023.65   20876
 1023.50   21073
 1023.35   21038
 1023.20   21132
 1023.05   20893
 1022.90   21089
 1022.75   21195
 1022.60   21093
 1022.45   20929
 1022.30   20986
 1022.15   20725
 1022.00   20849
 1021.85   20563
 1021.70   20617
 1021.55   20390
 1021.40   20410
 1021.25   20073
 1021.10   20266
 1020.95   20167
 1020.80   20145
 1020.65   20072
 1020.50   20092
 1020.35   20319
 1020.20   20102
 1020.05   20050
 1019.90   20391
 1019.75   19861
 1019.60   20260
 1019.45   20313
 1019.30   20011
 1019.15   20113
 1019.00   20074
 1018.85   20308
 1018.70   20383
 1018.55   20302
 1018.40   20429
 1018.25   20671
 1018.10   20358
 1017.95   20472
 1017.80   20593
 1017.65   20366
 1017.50   20310
 1017.35   20662
 1017.20   20296
 1017.05   20647
 1016.90   20053
 1016.75   20616
 1016.60   20745
 1016.45   20672
 1016.30   20618
 1016.15   20581
 1016.00   20772
 1015.85   20760
 1015.70   20872
 1015.55   20910
 1015.40   20945
 1015.25   20905
 1015.10   21123
 1014.95   20861
 1014.80   21008
 1014.65   21179
 1014.50   21060
 1014.35   21063
 1014.20   21012
 1014.05   20821
 1013.90   20886
 1013.75   20956
 1013.60   20997
 1013.45   20982
 1013.30   20902
 1013.15   20732
 1013.00   20604
 1012.85   20593
 1012.70   20660
 1012.55   20308
 1012.40   20467
 1012.25   20538
 1012.10   20507
 1011.95   20227
 1011.80   20241
 1011.65   20308
 1011.50   20107
 1011.35   20430
 1011.20   20368
 1011.05   20444
 1010.90   20010
 1010.75   20102
 1010.60   20304
 1010.45   20348
 1010.30   20191
 1010.15   20127
 1010.00   20186
 1009.85   19965
 1009.70   20278
 1009.55   20285
 1009.40   20254
 1009.25   20195
 1009.10   20241
 1008.95   20077
 1008.80   20018
 1008.65   19875
 1008.50   19964
 1008.35   19942
 1008.20   20087
 1008.05   20052
 1007.90   20335
 1007.75   20048
 1007.60   20072
 1007.45   19986
 1007.30   20161
 1007.15   20005
 1007.00   20207
 1006.85   19866
 1006.70   20012
 1006.55   20048
 1006.40   19991
 1006.25   20103
 1006.10   20010
 1005.95   19868
 1005.80   19905
 1005.65   19985
 1005.50   19936
 1005.35   19969
 1005.20   19922
 1005.05   20204
 1004.90   19965
 1004.75   20062
 1004.60   19852
 1004.45   19925
 1004.30   19966
 1004.15   20084
 1004.00   20153
 1003.85   20082
 1003.70   19990
 1003.55   19899
 1003.40   19802
 1003.25   20104
 1003.10   20060
 1002.95   20070
 1002.80   20226
 1002.65   20277
 1002.50   19920
 1002.35   20217
 1002.20   20012
 1002.05   20006
 1001.90   20010
 1001.75   20090
 1001.60   20201
 1001.45   20242
 1001.30   20341
 1001.15   20298
 1001.00   20312
 1000.85   20282
 1000.70   20544
 1000.55   20430
 1000.40   20207
 1000.25   20382
 1000.10   20219
  999.95   20301
  999.80   20198
  999.65   20304
  999.50   20455
  999.35   20526
  999.20   20414
  999.05   20294
  998.90   20344
  998.75   20560
  998.60   20366
  998.45   20556
  998.30   20439
  998.15   20474
  998.00   20588
  997.85   20407
  997.70   20646
  997.55   20374
  997.40   20439
  997.25   20702
  997.10   20629
  996.95   20430
  996.80   20643
  996.65   20733
  996.50   20497
  996.35   20499
  996.20   20433
  996.05   20445
  995.90   20194
  995.75   20491
  995.60   20881
  995.45   20678
  995.30   20715
  995.15   20766
  995.00   20595
  994.85   20715
  994.70   20539
  994.55   20482
  994.40   20595
  994.25   20438
  994.10   20580
  993.95   20712
  993.80   20516
  993.65   20413
  993.50   20686
  993.35   20575
  993.20   20792
  993.05   20501
  992.90   20373
  992.75   20727
  992.60   20829
  992.45   20618
  992.30   20436
  992.15   20290
  992.00   20700
  991.85   20305
  991.70   20501
  991.55   20434
  991.40   20521
  991.25   20544
  991.10   20533
  990.95   20617
  990.80   20313
  990.65   20377
  990.50   20728
  990.35   20690
  990.20   20636
  990.05   20276
  989.90   20300
  989.75   20306
  989.60   20190
  989.45   20123
  989.30   20291
  989.15   19910
  989.00   20235
  988.85   19972
  988.70   19705
  988.55   20313
  988.40   19756
  988.25   19846
  988.10   19906
  987.95   19795
  987.80   19898
  987.65   19653
  987.50   19936
  987.35   19485
  987.20   19769
  987.05   19450
  986.90   19540
  986.75   19449
  986.60   19449
  986.45   19291
  986.30   19272
  986.15   19538
  986.00   19432
  985.85   19261
  985.70   19405
  985.55   19103
  985.40   19438
  985.25   19395
  985.10   19255
  984.95   19083
  984.80   19098
  984.65   18963
  984.50   18900
  984.35   18906
  984.20   18939
  984.05   19005
  983.90   18678
  983.75   19070
  983.60   18537
  983.45   18629
  983.30   18714
  983.15   18759
  983.00   18926
  982.85   18640
  982.70   18904
  982.55   18386
  982.40   18434
  982.25   18610
  982.10   18384
  981.95   18369
  981.80   18344
  981.65   18395
  981.50   18494
  981.35   18430
  981.20   18285
  981.05   18384
  980.90   18371
  980.75   18168
  980.60   18087
  980.45   18187
  980.30   18205
  980.15   18257
  980.00   18186
  979.85   17947
  979.70   18207
  979.55   18307
  979.40   18168
  979.25   18061
  979.10   18105
  978.95   18014
  978.80   17921
  978.65   17852
  978.50   18016
  978.35   17756
  978.20   17982
  978.05   18071
  977.90   18210
  977.75   18269
  977.60   18013
  977.45   17894
  977.30   18079
  977.15   17935
  977.00   17840
  976.85   17781
  976.70   17731
  976.55   17795
  976.40   17882
  976.25   18139
  976.10   18142
  975.95   17779
  975.80   17741
  975.65   17909
  975.50   17829
  975.35   17840
  975.20   17941
  975.05   18086
  974.90   17775
  974.75   17978
  974.60   17882
  974.45   18002
  974.30   17551
  974.15   17789
  974.00   17659
  973.85   17726
  973.70   17728
  973.55   17783
  973.40   17577
  973.25   17581
  973.10   17689
  972.95   17850
  972.80   17398
  972.65   17965
  972.50   17750
  972.35   17725
  972.20   17618
  972.05   17596
  971.90   17772
  971.75   17468
  971.60   17829
  971.45   17839
  971.30   17848
  971.15   17482
  971.00   17455
  970.85   17998
  970.70   17447
  970.55   17671
  970.40   17575
  970.25   17641
  970.10   17623
  969.95   17554
  969.80   17897
  969.65   17677
  969.50   17709
  969.35   17421
  969.20   17647
  969.05   17774
  968.90   17620
  968.75   17895
  968.60   17758
  968.45   17792
  968.30   17990
  968.15   17769
  968.00   17932
  967.85   17662
  967.70   17681
  967.55   17797
  967.40   17838
  967.25   17811
  967.10   17471
  966.95   17492
  966.80   17718
  966.65   17900
  966.50   17740
  966.35   17654
  966.20   17654
  966.05   17814
  965.90   17882
  965.75   17876
  965.60   17694
  965.45   17730
  965.30   17782
  965.15   18011
  965.00   17799
  964.85   17714
  964.70   17974
  964.55   17995
  964.40   17898
  964.25   17843
  964.10   17910
  963.95   17862
  963.80   17726
  963.65   17622
  963.50   17703
  963.35   17940
  963.20   17874
  963.05   18014
  962.90   17745
  962.75   17962
  962.60   17491
  962.45   17452
  962.30   17742
  962.15   17742
  962.00   17758
  961.85   17686
  961.70   17563
  961.55   17605
  961.40   17501
  961.25   17694
  961.10   17722
  960.95   17752
  960.80   17813
  960.65   17695
  960.50   17481
  960.35   17982
  960.20   17515
  960.05   17568
  959.90   17857
  959.75   17714
  959.60   17637
  959.45   17756
  959.30   17534
  959.15   17722
  959.00   17810
  958.85   17629
  958.70   17631
  958.55   17615
  958.40   17469
  958.25   17662
  958.10   17769
  957.95   17424
  957.80   17742
  957.65   17532
  957.50   17678
  957.35   17698
  957.20   17946
  957.05   17749
  956.90   17401
  956.75   17501
  956.60   17583
  956.45   17622
  956.30   17452
  956.15   17495
  956.00   17690
  955.85   17688
  955.70   17532
  955.55   17829
  955.40   17802
  955.25   17541
  955.10   17618
  954.95   17742
  954.80   17705
  954.65   17639
  954.50   17531
  954.35   17698
  954.20   17864
  954.05   17529
  953.90   17774
  953.75   17610
  953.60   17780
  953.45   17763
  953.30   17748
  953.15   17763
  953.00   17522
  952.85   17466
  952.70   17627
  952.55   17694
  952.40   17453
  952.25   17624
  952.10   17542
  951.95   17374
  951.80   17576
  951.65   17467
  951.50   17445
  951.35   17557
  951.20   17564
  951.05   17639
  950.90   17638
  950.75   17308
  950.60   17757
  950.45   17367
  950.30   17425
  950.15   17483
  950.00   17413
  949.85   17442
  949.70   17364
  949.55   17349
  949.40   17390
  949.25   17366
  949.10   17330
  948.95   17389
  948.80   17468
  948.65   17389
  948.50   17500
  948.35   17554
  948.20   17407
  948.05   17345
  947.90   17785
  947.75   17394
  947.60   17372
  947.45   17539
  947.30   17531
  947.15   17333
  947.00   17476
  946.85   17551
  946.70   17600
  946.55   17480
  946.40   17411
  946.25   17654
  946.10   17493
  945.95   17498
  945.80   17676
  945.65   17522
  945.50   17644
  945.35   17468
  945.20   17398
  945.05   17391
  944.90   17743
  944.75   17547
  944.60   17348
  944.45   17382
  944.30   17337
  944.15   17615
  944.00   17327
  943.85   17491
  943.70   17366
  943.55   17858
  943.40   17377
  943.25   17590
  943.10   17612
  942.95   17407
  942.80   17460
  942.65   17485
  942.50   17561
  942.35   17618
  942.20   17445
  942.05   17440
  941.90   17654
  941.75   17582
  941.60   17140
  941.45   17352
  941.30   17570
  941.15   17443
  941.00   17559
  940.85   17449
  940.70   17482
  940.55   17666
  940.40   17257
  940.25   17579
  940.10   17429
  939.95   17456
  939.80   17517
  939.65   17216
  939.50   17677
  939.35   17408
  939.20   17366
  939.05   17225
  938.90   17411
  938.75   17454
  938.60   17300
  938.45   17593
  938.30   17434
  938.15   17507
  938.00   17473
  937.85   17582
  937.70   17335
  937.55   17613
  937.40   17610
  937.25   17473
  937.10   17638
  936.95   17652
  936.80   17751
  936.65   17373
  936.50   17584
  936.35   17688
  936.20   17538
  936.05   17637
  935.90   17694
  935.75   17613
  935.60   17537
  935.45   17722
  935.30   17794
  935.15   17638
  935.00   17611
  934.85   17869
  934.70   17910
  934.55   17702
  934.40   17743
  934.25   17750
  934.10   17835
  933.95   17680
  933.80   17848
  933.65   18031
  933.50   17802
  933.35   17767
  933.20   17473
  933.05   17412
  932.90   17530
  932.75   17856
  932.60   17489
  932.45   17529
  932.30   17455
  932.15   17629
  932.00   17821
  931.85   17472
  931.70   17510
  931.55   17390
  931.40   16972
  931.25   17531
  931.10   17263
  930.95   17309
  930.80   17192
  930.65   17309
  930.50   17427
  930.35   17405
  930.20   17503
  930.05   17146
  929.90   17313
  929.75   17364
  929.60   17539
  929.45   17314
  929.30   17333
  929.15   17634
  929.00   17430
  928.85   17670
  928.70   17460
  928.55   17258
  928.40   17403
  928.25   17363
  928.10   17273
  927.95   17334
  927.80   17414
  927.65   17527
  927.50   17514
  927.35   17295
  927.20   17371
  927.05   17373
  926.90   17481
  926.75   17584
  926.60   17387
  926.45   17328
  926.30   17330
  926.15   17271
  926.00   17056
  925.85   17292
  925.70   17246
  925.55   17511
  925.40   17429
  925.25   17236
  925.10   17367
  924.95   17413
  924.80   17301
  924.65   17341
  924.50   17422
  924.35   17354
  924.20   17201
  924.05   17245
  923.90   17324
  923.75   17254
  923.60   17466
  923.45   17376
  923.30   17185
  923.15   17304
  923.00   17414
  922.85   17460
  922.70   17287
  922.55   17616
  922.40   17270
  922.25   17263
  922.10   17234
  921.95   17222
  921.80   17304
  921.65   17552
  921.50   17320
  921.35   17472
  921.20   17139
  921.05   17215
  920.90   17373
  920.75   17342
  920.60   17511
  920.45   17311
  920.30   17253
  920.15   17425
  920.00   17262
  919.85   17420
  919.70   17631
  919.55   17131
  919.40   17342
  919.25   17504
  919.10   17374
  918.95   17116
  918.80   17306
  918.65   17175
  918.50   17200
  918.35   17336
  918.20   17370
  918.05   17127
  917.90   17493
  917.75   17276
  917.60   17293
  917.45   17541
  917.30   17357
  917.15   17396
  917.00   17199
  916.85   17633
  916.70   17466
  916.55   17199
  916.40   17043
  916.25   17077
  916.10   17423
  915.95   17337
  915.80   17184
  915.65   17550
  915.50   17244
  915.35   17166
  915.20   17468
  915.05   17210
  914.90   17289
  914.75   17567
  914.60   17327
  914.45   17183
  914.30   17442
  914.15   17515
  914.00   17469
  913.85   17507
  913.70   17291
  913.55   17206
  913.40   17209
  913.25   17535
  913.10   17288
  912.95   17060
  912.80   17279
  912.65   17379
  912.50   17241
  912.35   17372
  912.20   17373
  912.05   17553
  911.90   17339
  911.75   17180
  911.60   17388
  911.45   17607
  911.30   17512
  911.15   17305
  911.00   17308
  910.85   17226
  910.70   17104
  910.55   17352
  910.40   17046
  910.25   17314
  910.10   17174
  909.95   17399
  909.80   17133
  909.65   17332
  909.50   17264
  909.35   17365
  909.20   17291
  909.05   17640
  908.90   17453
  908.75   17351
  908.60   17267
  908.45   17725
  908.30   17227
  908.15   17324
  908.00   17397
  907.85   17192
  907.70   17468
  907.55   17602
  907.40   17216
  907.25   17196
  907.10   17363
  906.95   17620
  906.80   17426
  906.65   17249
  906.50   17613
  906.35   17245
  906.20   17183
  906.05   17136
  905.90   17387
  905.75   17479
  905.60   17266
  905.45   17296
  905.30   17529
  905.15   17190
  905.00   17310
  904.85   17437
  904.70   17376
  904.55   17497
  904.40   17422
  904.25   17339
  904.10   17501
  903.95   17313
  903.80   17310
  903.65   17113
  903.50   17445
  903.35   17303
  903.20   17302
  903.05   17412
  902.90   17618
  902.75   17175
  902.60   17384
  902.45   17133
  902.30   17320
  902.15   17348
  902.00   17518
  901.85   17387
  901.70   17286
  901.55   17452
  901.40   17164
  901.25   17352
  901.10   17215
  900.95   17364
  900.80   17422
  900.65   17302
  900.50   17300
  900.35   17425
  900.20   17147
  900.05   17037
  899.90   17315
  899.75   17486
  899.60   17424
  899.45   17416
  899.30   17319
  899.15   17554
  899.00   17283
  898.85   17092
  898.70   17261
  898.55   17478
  898.40   17336
  898.25   17486
  898.10   17506
  897.95   17342
  897.80   17179
  897.65   17477
  897.50   17070
  897.35   17257
  897.20   17489
  897.05   17376
  896.90   17402
  896.75   17366
  896.60   17396
  896.45   17593
  896.30   17323
  896.15   17176
  896.00   17329
  895.85   17094
  895.70   17526
  895.55   17343
  895.40   17358
  895.25   17103
  895.10   17291
  894.95   17421
  894.80   17435
  894.65   17305
  894.50   17253
  894.35   17286
  894.20   17250
  894.05   17502
  893.90   17438
  893.75   17417
  893.60   17243
  893.45   17257
  893.30   17221
  893.15   17369
  893.00   17437
  892.85   17172
  892.70   17375
  892.55   17232
  892.40   17101
  892.25   17563
  892.10   17342
  891.95   17431
  891.80   17645
  891.65   17312
  891.50   17375
  891.35   17518
  891.20   17162
  891.05   17258
  890.90   17181
  890.75   17464
  890.60   17194
  890.45   17157
  890.30   17355
  890.15   17444
  890.00   17456
  889.85   17486
  889.70   17396
  889.55   17279
  889.40   17280
  889.25   17402
  889.10   17219
  888.95   17201
  888.80   17575
  888.65   17253
  888.50   17386
  888.35   17434
  888.20   17467
  888.05   17304
  887.90   17315
  887.75   17159
  887.60   17231
  887.45   17346
  887.30   17393
  887.15   17318
  887.00   17358
  886.85   17362
  886.70   17392
  886.55   17527
  886.40   17475
  886.25   17260
  886.10   17260
  885.95   17254
  885.80   17415
  885.65   17467
  885.50   17030
  885.35   17401
  885.20   17668
  885.05   17357
  884.90   17246
  884.75   17507
  884.60   17473
  884.45   17454
  884.30   17555
  884.15   17104
  884.00   17339
  883.85   17181
  883.70   17274
  883.55   17485
  883.40   17409
  883.25   17225
  883.10   17294
  882.95   17507
  882.80   17138
  882.65   17137
  882.50   17314
  882.35   17533
  882.20   17224
  882.05   17389
  881.90   17244
  881.75   17313
  881.60   17252
  881.45   17205
  881.30   17312
  881.15   17290
  881.00   17159
  880.85   17496
  880.70   17297
  880.55   17345
  880.40   17383
  880.25   17164
  880.10   17416
  879.95   17306
  879.80   17107
  879.65   17191
  879.50   17259
  879.35   17085
  879.20   17451
  879.05   17291
  878.90   17292
  878.75   17361
  878.60   17311
  878.45   17202
  878.30   17475
  878.15   17244
  878.00   17440
  877.85   17158
  877.70   17435
  877.55   17059
  877.40   17291
  877.25   17358
  877.10   17530
  876.95   17138
  876.80   17249
  876.65   17365
  876.50   17404
  876.35   17246
  876.20   17344
  876.05   17337
  875.90   17207
  875.75   17231
  875.60   17386
  875.45   17273
  875.30   17417
  875.15   17133
  875.00   17446
  874.85   17413
  874.70   17268
  874.55   17232
  874.40   17176
  874.25   17166
  874.10   17387
  873.95   17201
  873.80   17204
  873.65   17470
  873.50   17196
  873.35   17533
  873.20   17442
  873.05   17316
  872.90   17056
  872.75   17143
  872.60   17310
  872.45   17209
  872.30   17094
  872.15   17272
  872.00   17111
  871.85   17198
  871.70   17271
  871.55   17055
  871.40   17262
  871.25   17151
  871.10   17321
  870.95   17208
  870.80   17104
  870.65   17108
  870.50   17269
  870.35   17100
  870.20   17500
  870.05   17042
  869.90   17228
  869.75   17196
  869.60   16975
  869.45   17150
  869.30   17472
  869.15   17170
  869.00   17396
  868.85   17238
  868.70   17489
  868.55   17051
  868.40   17417
  868.25   17229
  868.10   17508
  867.95   17165
  867.80   17430
  867.65   17219
  867.50   17117
  867.35   17254
  867.20   17096
  867.05   17359
  866.90   16980
  866.75   17011
  866.60   17170
  866.45   17227
  866.30   17181
  866.15   17198
  866.00   17407
  865.85   17139
  865.70   17070
  865.55   17111
  865.40   16995
  865.25   16910
  865.10   16919
  864.95   17100
  864.80   17290
  864.65   17242
  864.50   17195
  864.35   17226
  864.20   17160
  864.05   17062
  863.90   16972
  863.75   17332
  863.60   17286
  863.45   17124
  863.30   17169
  863.15   17070
  863.00   17383
  862.85   17315
  862.70   17278
  862.55   17269
  862.40   16881
  862.25   17376
  862.10   17145
  861.95   17003
  861.80   17099
  861.65   17100
  861.50   17057
  861.35   17079
  861.20   16883
  861.05   17034
  860.90   17078
  860.75   17214
  860.60   17361
  860.45   17136
  860.30   17268
  860.15   17107
  860.00   17275
  859.85   17038
  859.70   16941
  859.55   17162
  859.40   17047
  859.25   17131
  859.10   17266
  858.95   17054
  858.80   17060
  858.65   17025
  858.50   17292
  858.35   17208
  858.20   17249
  858.05   16910
  857.90   17376
  857.75   17685
  857.60   17324
  857.45   17308
  857.30   17318
  857.15   17621
  857.00   17233
  856.85   17687
  856.70   17346
  856.55   17370
  856.40   17417
  856.25   17369
  856.10   17249
  855.95   17276
  855.80   17624
  855.65   17155
  855.50   17141
  855.35   17121
  855.20   17340
  855.05   17497
  854.90   17116
  854.75   17281
  854.60   17138
  854.45   17336
  854.30   17265
  854.15   17527
  854.00   17245
  853.85   17096
  853.70   17256
  853.55   17121
  853.40   17378
  853.25   17117
  853.10   17073
  852.95   17156
  852.80   17003
  852.65   17289
  852.50   17139
  852.35   16950
  852.20   17085
  852.05   17150
  851.90   17228
  851.75   17097
  851.60   17151
  851.45   17221
  851.30   17284
  851.15   17105
  851.00   17241
  850.85   16991
  850.70   17383
  850.55   17028
  850.40   17180
  850.25   17355
  850.10   17225
  849.95   17073
  849.80   17064
  849.65   17018
  849.50   17253
  849.35   17338
  849.20   17171
  849.05   17159
  848.90   17203
  848.75   17127
  848.60   16922
  848.45   17036
  848.30   17071
  848.15   17315
  848.00   17091
  847.85   17148
  847.70   17159
  847.55   17171
  847.40   16950
  847.25   17072
  847.10   16941
  846.95   17056
  846.80   16933
  846.65   17074
  846.50   16996
  846.35   16848
  846.20   16999
  846.05   17080
  845.90   17090
  845.75   16935
  845.60   17149
  845.45   17062
  845.30   16987
  845.15   16809
  845.00   16886
  844.85   17151
  844.70   16883
  844.55   16844
  844.40   16986
  844.25   16949
  844.10   17118
  843.95   17036
  843.80   16849
  843.65   16981
  843.50   17035
  843.35   17127
  843.20   16926
  843.05   17007
  842.90   16837
  842.75   17039
  842.60   17015
  842.45   16914
  842.30   16874
  842.15   17006
  842.00   16985
  841.85   16839
  841.70   16968
  841.55   16725
  841.40   16852
  841.25   16909
  841.10   16832
  840.95   16977
  840.80   16771
  840.65   17109
  840.50   16903
  840.35   16681
  840.20   16860
  840.05   16930
  839.90   16646
  839.75   17053
  839.60   17155
  839.45   17022
  839.30   16997
  839.15   16881
  839.00   16990
  838.85   17174
  838.70   17006
  838.55   16983
  838.40   16833
  838.25   17046
  838.10   16771
  837.95   16831
  837.80   16877
  837.65   17061
  837.50   17046
  837.35   17161
  837.20   16947
  837.05   16866
  836.90   16953
  836.75   17023
  836.60   16949
  836.45   16937
  836.30   17002
  836.15   16988
  836.00   16849
  835.85   17003
  835.70   16817
  835.55   16951
  835.40   16647
  835.25   16709
  835.10   16755
  834.95   16882
  834.80   17044
  834.65   17012
  834.50   16812
  834.35   16994
  834.20   16945
  834.05   16841
  833.90   16877
  833.75   16997
  833.60   16633
  833.45   16899
  833.30   16856
  833.15   16849
  833.00   16756
  832.85   17064
  832.70   16934
  832.55   16771
  832.40   17097
  832.25   17045
  832.10   16570
  831.95   16828
  831.80   16801
  831.65   17008
  831.50   16949
  831.35   16833
  831.20   16844
  831.05   16889
  830.90   17021
  830.75   16721
  830.60   16649
  830.45   17184
  830.30   16877
  830.15   16548
  830.00   16955
  829.85   16814
  829.70   17095
  829.55   17142
  829.40   16683
  829.25   16626
  829.10   16624
  828.95   16688
  828.80   16752
  828.65   16800
  828.50   16980
  828.35   16473
  828.20   16729
  828.05   16878
  827.90   16768
  827.75   16711
  827.60   16882
  827.45   16760
  827.30   16863
  827.15   16794
  827.00   16766
  826.85   16758
  826.70   16786
  826.55   16865
  826.40   16794
  826.25   16859
  826.10   16916
  825.95   16955
  825.80   16929
  825.65   16972
  825.50   16765
  825.35   16911
  825.20   16925
  825.05   17191
  824.90   16893
  824.75   16825
  824.60   16806
  824.45   16870
  824.30   16843
  824.15   16789
  824.00   16913
  823.85   16833
  823.70   16968
  823.55   16955
  823.40   16905
  823.25   16980
  823.10   16806
  822.95   17028
  822.80   16773
  822.65   16808
  822.50   16649
  822.35   16917
  822.20   16627
  822.05   16919
  821.90   16829
  821.75   16919
  821.60   16918
  821.45   16941
  821.30   16737
  821.15   16571
  821.00   16728
  820.85   16892
  820.70   16757
  820.55   16898
  820.40   16884
  820.25   16720
  820.10   16913
  819.95   16727
  819.80   16749
  819.65   16585
  819.50   16748
  819.35   16839
  819.20   16733
  819.05   17034
  818.90   16749
  818.75   16712
  818.60   16759
  818.45   16604
  818.30   16785
  818.15   16609
  818.00   16691
  817.85   16855
  817.70   16798
  817.55   16644
  817.40   16757
  817.25   17007
  817.10   16683
  816.95   16591
  816.80   16894
  816.65   16800
  816.50   16744
  816.35   16969
  816.20   16771
  816.05   16608
  815.90   16627
  815.75   16964
  815.60   16755
  815.45   16650
  815.30   16767
  815.15   16799
  815.00   16782
  814.85   16655
  814.70   16900
  814.55   16693
  814.40   16790
  814.25   16699
  814.10   16718
  813.95   16700
  813.80   16723
  813.65   16813
  813.50   16567
  813.35   16648
  813.20   16867
  813.05   16833
  812.90   16668
  812.75   16911
  812.60   16703
  812.45   16687
  812.30   16846
  812.15   16922
  812.00   16589
  811.85   16827
  811.70   17023
  811.55   16777
  811.40   16549
  811.25   16853
  811.10   16503
  810.95   16894
  810.80   16805
  810.65   16689
  810.50   16953
  810.35   16709
  810.20   16841
  810.05   16979
  809.90   16886
  809.75   16869
  809.60   16765
  809.45   16827
  809.30   16572
  809.15   16815
  809.00   16808
  808.85   16648
  808.70   16578
  808.55   16675
  808.40   16837
  808.25   16789
  808.10   16998
  807.95   16804
  807.80   16817
  807.65   16662
  807.50   16558
  807.35   16626
  807.20   16597
  807.05   16660
  806.90   16661
  806.75   16717
  806.60   16858
  806.45   16511
  806.30   17104
  806.15   16606
  806.00   16671
  805.85   16643
  805.70   16636
  805.55   16504
  805.40   16831
  805.25   16701
  805.10   16621
  804.95   16783
  804.80   16495
  804.65   16627
  804.50   16800
  804.35   16745
  804.20   16546
  804.05   16605
  803.90   16687
  803.75   16696
  803.60   16828
  803.45   16746
  803.30   16621
  803.15   16635
  803.00   16704
  802.85   16541
  802.70   16887
  802.55   16446
  802.40   16693
  802.25   16788
  802.10   16677
  801.95   16668
  801.80   16578
  801.65   16427
  801.50   16704
  801.35   16459
  801.20   16636
  801.05   16845
  800.90   16673
  800.75   16570
  800.60   16530
  800.45   16547
  800.30   16756
  800.15   16669
  800.00   16575
  799.85   16578
  799.70   16506
  799.55   16638
  799.40   16835
  799.25   16693
  799.10   16505
  798.95   16580
  798.80   16670
  798.65   16630
  798.50   16854
  798.35   16410
  798.20   16705
  798.05   16850
  797.90   16450
  797.75   16589
  797.60   16583
  797.45   16611
  797.30   16600
  797.15   16775
  797.00   16735
  796.85   16561
  796.70   16817
  796.55   16553
  796.40   16574
  796.25   16512
  796.10   16592
  795.95   16850
  795.80   16608
  795.65   16659
  795.50   16573
  795.35   16881
  795.20   16758
  795.05   16780
  794.90   16478
  794.75   16533
  794.60   16687
  794.45   16478
  794.30   16774
  794.15   16853
  794.00   16766
  793.85   16539
  793.70   16631
  793.55   16551
  793.40   16991
  793.25   16688
  793.10   16380
  792.95   16626
  792.80   16618
  792.65   16616
  792.50   16520
  792.35   16458
  792.20   16468
  792.05   16608
  791.90   16263
  791.75   16755
  791.60   16733
  791.45   16721
  791.30   16831
  791.15   16421
  791.00   16374
  790.85   16604
  790.70   16653
  790.55   16480
  790.40   16394
  790.25   16558
  790.10   16570
  789.95   16683
  789.80   16506
  789.65   16573
  789.50   16485
  789.35   16625
  789.20   16785
  789.05   16453
  788.90   16653
  788.75   16682
  788.60   16629
  788.45   16783
  788.30   16615
  788.15   16502
  788.00   16390
  787.85   16572
  787.70   16829
  787.55   16419
  787.40   16664
  787.25   16469
  787.10   16369
  786.95   16706
  786.80   16597
  786.65   16624
  786.50   16662
  786.35   16460
  786.20   16699
  786.05   16554
  785.90   16652
  785.75   16621
  785.60   16735
  785.45   16646
  785.30   16684
  785.15   16808
  785.00   16543
  784.85   16741
  784.70   16673
  784.55   16475
  784.40   16440
  784.25   16535
  784.10   16641
  783.95   16579
  783.80   16423
  783.65   16561
  783.50   16460
  783.35   16599
  783.20   16402
  783.05   16364
  782.90   16563
  782.75   16671
  782.60   16540
  782.45   16530
  782.30   16505
  782.15   16504
  782.00   16628
  781.85   16538
  781.70   16511
  781.55   16737
  781.40   16617
  781.25   16359
  781.10   16640
  780.95   16498
  780.80   16365
  780.65   16556
  780.50   16604
  780.35   16469
  780.20   16353
  780.05   16478
  779.90   16543
  779.75   16691
  779.60   16367
  779.45   16384
  779.30   16544
  779.15   16516
  779.00   16635
  778.85   16357
  778.70   16364
  778.55   16506
  778.40   16453
  778.25   16496
  778.10   16516
  777.95   16593
  777.80   16563
  777.65   16390
  777.50   16359
  777.35   16313
  777.20   16371
  777.05   16427
  776.90   16487
  776.75   16458
  776.60   16343
  776.45   16400
  776.30   16407
  776.15   16395
  776.00   16351
  775.85   16479
  775.70   16283
  775.55   16538
  775.40   16545
  775.25   16277
  775.10   16652
  774.95   16539
  774.80   16605
  774.65   16378
  774.50   16454
  774.35   16480
  774.20   16483
  774.05   16559
  773.90   16269
  773.75   16506
  773.60   16456
  773.45   16824
  773.30   16387
  773.15   16481
  773.00   16585
  772.85   16254
  772.70   16582
  772.55   16640
  772.40   16404
  772.25   16303
  772.10   16528
  771.95   16544
  771.80   16550
  771.65   16504
  771.50   16328
  771.35   16491
  771.20   16521
  771.05   16303
  770.90   16413
  770.75   16708
  770.60   16441
  770.45   16648
  770.30   16408
  770.15   16628
  770.00   16226
  769.85   16396
  769.70   16458
  769.55   16705
  769.40   16705
  769.25   16580
  769.10   16703
  768.95   16506
  768.80   16619
  768.65   16638
  768.50   16778
  768.35   16536
  768.20   16641
  768.05   16614
  767.90   16566
  767.75   16486
  767.60   16500
  767.45   16284
  767.30   16425
  767.15   16344
  767.00   16700
  766.85   16590
  766.70   16243
  766.55   16319
  766.40   16549
  766.25   16413
  766.10   16402
  765.95   16530
  765.80   16471
  765.65   16347
  765.50   16388
  765.35   16428
  765.20   16410
  765.05   16328
  764.90   16062
  764.75   16154
  764.60   16164
  764.45   16256
  764.30   16104
  764.15   16202
  764.00   16392
  763.85   16101
  763.70   16128
  763.55   15940
  763.40   16060
  763.25   16101
  763.10   16105
  762.95   15676
  762.80   15981
  762.65   15988
  762.50   15922
  762.35   16082
  762.20   16014
  762.05   15902
  761.90   15762
  761.75   15872
  761.60   15902
  761.45   16064
  761.30   15818
  761.15   15641
  761.00   15549
  760.85   15763
  760.70   15769
  760.55   15602
  760.40   15602
  760.25   15721
  760.10   15712
  759.95   15555
  759.80   15398
  759.65   15635
  759.50   15664
  759.35   15435
  759.20   15531
  759.05   15248
  758.90   15520
  758.75   15467
  758.60   15514
  758.45   15424
  758.30   15350
  758.15   15356
  758.00   15220
  757.85   15416
  757.70   15406
  757.55   15212
  757.40   15203
  757.25   15126
  757.10   15500
  756.95   15287
  756.80   15024
  756.65   15144
  756.50   15229
  756.35   15254
  756.20   15048
  756.05   15336
  755.90   14961
  755.75   14849
  755.60   14855
  755.45   15001
  755.30   14929
  755.15   15031
  755.00   15247
  754.85   15067
  754.70   15007
  754.55   15093
  754.40   15171
  754.25   15019
  754.10   15171
  753.95   15129
  753.80   14918
  753.65   15019
  753.50   15075
  753.35   14952
  753.20   14833
  753.05   15054
  752.90   14893
  752.75   15145
  752.60   15016
  752.45   14926
  752.30   15253
  752.15   15064
  752.00   15117
  751.85   15245
  751.70   15002
  751.55   14977
  751.40   15027
  751.25   15085
  751.10   15168
  750.95   15386
  750.80   15112
  750.65   15218
  750.50   15225
  750.35   15379
  750.20   15416
  750.05   15467
  749.90   15542
  749.75   15472
  749.60   15464
  749.45   15393
  749.30   15226
  749.15   15757
  749.00   15605
  748.85   15545
  748.70   15635
  748.55   15770
  748.40   15563
  748.25   15650
  748.10   15847
  747.95   15696
  747.80   15863
  747.65   16035
  747.50   15745
  747.35   15968
  747.20   16044
  747.05   16043
  746.90   16249
  746.75   16201
  746.60   16096
  746.45   15983
  746.30   16588
  746.15   16233
  746.00   16204
  745.85   16271
  745.70   16155
  745.55   16228
  745.40   16425
  745.25   16330
  745.10   16569
  744.95   16403
  744.80   16328
  744.65   16616
  744.50   16546
  744.35   16487
  744.20   16548
  744.05   16573
  743.90   16476
  743.75   16447
  743.60   16573
  743.45   16568
  743.30   16227
  743.15   16533
  743.00   16295
  742.85   16297
  742.70   16210
  742.55   16363
  742.40   16300
  742.25   16131
  742.10   16254
  741.95   16427
  741.80   15884
  741.65   16019
  741.50   16116
  741.35   16097
  741.20   15754
  741.05   15924
  740.90   15880
  740.75   15815
  740.60   15736
  740.45   15663
  740.30   15615
  740.15   15848
  740.00   15705
  739.85   15562
  739.70   15440
  739.55   15711
  739.40   15321
  739.25   15392
  739.10   15157
  738.95   15108
  738.80   14985
  738.65   15124
  738.50   14875
  738.35   14757
  738.20   14662
  738.05   14691
  737.90   14382
  737.75   14113
  737.60   14260
  737.45   14144
  737.30   14046
  737.15   14061
  737.00   13994
  736.85   14074
  736.70   13768
  736.55   13694
  736.40   13753
  736.25   13473
  736.10   13569
  735.95   13443
  735.80   13420
  735.65   13574
  735.50   13380
  735.35   13302
  735.20   13302
  735.05   13072
  734.90   13375
  734.75   12996
  734.60   13285
  734.45   13014
  734.30   12991
  734.15   12922
  734.00   13156
  733.85   12947
  733.70   13102
  733.55   12756
  733.40   12750
  733.25   13019
  733.10   12740
  732.95   12818
  732.80   12910
  732.65   12737
  732.50   12878
  732.35   12855
  732.20   12904
  732.05   12902
  731.90   12778
  731.75   12974
  731.60   12910
  731.45   12653
  731.30   12721
  731.15   12504
  731.00   12579
  730.85   12731
  730.70   12615
  730.55   12727
  730.40   12814
  730.25   12897
  730.10   12545
  729.95   12586
  729.80   12566
  729.65   12820
  729.50   12692
  729.35   12563
  729.20   12686
  729.05   12636
  728.90   12657
  728.75   12645
  728.60   12857
  728.45   12831
  728.30   12585
  728.15   12795
  728.00   12680
  727.85   12707
  727.70   12758
  727.55   12796
  727.40   12811
  727.25   12583
  727.10   12853
  726.95   13123
  726.80   13059
  726.65   13094
  726.50   12829
  726.35   12969
  726.20   13294
  726.05   13396
  725.90   13177
  725.75   13421
  725.60   13261
  725.45   13342
  725.30   13333
  725.15   13180
  725.00   13338
  724.85   13025
  724.70   12923
  724.55   13015
  724.40   12858
  724.25   12890
  724.10   12652
  723.95   12642
  723.80   12678
  723.65   12454
  723.50   12333
  723.35   12469
  723.20   12384
  723.05   12031
  722.90   12044
  722.75   12279
  722.60   11988
  722.45   12016
  722.30   12111
  722.15   12098
  722.00   12211
  721.85   11980
  721.70   12030
  721.55   11943
  721.40   12100
  721.25   12028
  721.10   11910
  720.95   11678
  720.80   11791
  720.65   11786
  720.50   11838
  720.35   11986
  720.20   11883
  720.05   11938
  719.90   11774
  719.75   11893
  719.60   11732
  719.45   11827
  719.30   11811
  719.15   11729
  719.00   11584
  718.85   11712
  718.70   11674
  718.55   11520
  718.40   11665
  718.25   11765
  718.10   11830
  717.95   11488
  717.80   11825
  717.65   11727
  717.50   11579
  717.35   11847
  717.20   11757
  717.05   11547
  716.90   11802
  716.75   11537
  716.60   11606
  716.45   11907
  716.30   11588
  716.15   11567
  716.00   11779
  715.85   11700
  715.70   11944
  715.55   11776
  715.40   11726
  715.25   11545
  715.10   11842
  714.95   11967
  714.80   11772
  714.65   11676
  714.50   11589
  714.35   11691
  714.20   11763
  714.05   11918
  713.90   11784
  713.75   11779
  713.60   11933
  713.45   11860
  713.30   11854
  713.15   11801
  713.00   11944
  712.85   12039
  712.70   11929
  712.55   12091
  712.40   12021
  712.25   11904
  712.10   11839
  711.95   11965
  711.80   11933
  711.65   11925
  711.50   11692
  711.35   12053
  711.20   11867
  711.05   11830
  710.90   11765
  710.75   11855
  710.60   11692
  710.45   11752
  710.30   11497
  710.15   11526
  710.00   11279
  709.85   11338
  709.70   11330
  709.55   11425
  709.40   11332
  709.25   11070
  709.10   11157
  708.95   11077
  708.80   11259
  708.65   11024
  708.50   11155
  708.35   10920
  708.20   11134
  708.05   10908
  707.90   10931
  707.75   10674
  707.60   10707
  707.45   10835
  707.30   11101
  707.15   10927
  707.00   10734
  706.85   10956
  706.70   10759
  706.55   10664
  706.40   10666
  706.25   10937
  706.10   10676
  705.95   10670
  705.80   10642
  705.65   10779
  705.50   10715
  705.35   10744
  705.20   10817
  705.05   10670
  704.90   10703
  704.75   10716
  704.60   10831
  704.45   10617
  704.30   10750
  704.15   10581
  704.00   10767
  703.85   10681
  703.70   10793
  703.55   10756
  703.40   10629
  703.25   10617
  703.10   10852
  702.95   10454
  702.80   10815
  702.65   10606
  702.50   10685
  702.35   10629
  702.20   10696
  702.05   10740
  701.90   10823
  701.75   10451
  701.60   10690
  701.45   10620
  701.30   10763
  701.15   10651
  701.00   10675
  700.85   10626
  700.70   10675
  700.55   10525
  700.40   10675
  700.25   10546
  700.10   10574
  699.95   10662
  699.80   10727
  699.65   10616
  699.50   10550
  699.35   10590
  699.20   10525
  699.05   10739
  698.90   10537
  698.75   10709
  698.60   10622
  698.45   10440
  698.30   10639
  698.15   10476
  698.00   10456
  697.85   10571
  697.70   10678
  697.55   10452
  697.40   10638
  697.25   10532
  697.10   10573
  696.95   10638
  696.80   10632
  696.65   10336
  696.50   10575
  696.35   10548
  696.20   10694
  696.05   10492
  695.90   10575
  695.75   10405
  695.60   10417
  695.45   10599
  695.30   10395
  695.15   10482
  695.00   10275
  694.85   10468
  694.70   10377
  694.55   10516
  694.40   10457
  694.25   10482
  694.10   10326
  693.95   10283
  693.80   10411
  693.65   10388
  693.50   10423
  693.35   10062
  693.20   10383
  693.05   10434
  692.90   10347
  692.75   10338
  692.60   10418
  692.45   10327
  692.30   10414
  692.15   10249
  692.00   10372
  691.85   10403
  691.70   10369
  691.55   10431
  691.40   10503
  691.25   10496
  691.10   10545
  690.95   10570
  690.80   10615
  690.65   10781
  690.50   10787
  690.35   10805
  690.20   10809
  690.05   10873
  689.90   10873
  689.75   10872
  689.60   10982
  689.45   10852
  689.30   10874
  689.15   10878
  689.00   10759
  688.85   10697
  688.70   10854
  688.55   10760
  688.40   10553
  688.25   10668
  688.10   10671
  687.95   10491
  687.80   10492
  687.65   10561
  687.50   10649
  687.35   10512
  687.20   10378
  687.05   10193
  686.90   10373
  686.75   10440
  686.60   10221
  686.45   10188
  686.30   10281
  686.15   10198
  686.00   10123
  685.85   10298
  685.70   10274
  685.55   10060
  685.40   10065
  685.25   10175
  685.10   10168
  684.95   10180
  684.80   10137
  684.65   10014
  684.50   10142
  684.35   10160
  684.20   10106
  684.05   10072
  683.90   10000
  683.75   10051
  683.60   10175
  683.45    9901
  683.30    9719
  683.15   10020
  683.00   10179
  682.85   10011
  682.70    9987
  682.55    9942
  682.40    9947
  682.25   10178
  682.10   10146
  681.95   10147
  681.80    9962
  681.65   10346
  681.50    9950
  681.35   10038
  681.20   10224
  681.05   10051
  680.90   10077
  680.75   10016
  680.60    9953
  680.45   10006
  680.30   10227
  680.15    9942
  680.00    9925
  679.85    9809
  679.70    9829
  679.55    9825
  679.40    9953
  679.25    9896
  679.10   10080
  678.95   10037
  678.80   10079
  678.65    9905
  678.50    9845
  678.35    9877
  678.20    9858
  678.05    9778
  677.90    9907
  677.75    9788
  677.60    9835
  677.45    9733
  677.30    9771
  677.15    9697
  677.00    9865
  676.85    9927
  676.70    9787
  676.55    9773
  676.40    9840
  676.25    9746
  676.10    9830
  675.95    9729
  675.80    9796
  675.65    9888
  675.50    9926
  675.35    9667
  675.20    9875
  675.05    9939
  674.90    9652
  674.75    9931
  674.60    9825
  674.45    9678
  674.30    9803
  674.15    9893
  674.00    9601
  673.85    9733
  673.70    9770
  673.55    9838
  673.40    9811
  673.25    9720
  673.10    9793
  672.95    9838
  672.80    9869
  672.65    9783
  672.50    9777
  672.35    9750
  672.20    9813
  672.05    9772
  671.90    9716
  671.75    9755
  671.60    9851
  671.45    9695
  671.30    9683
  671.15    9700
  671.00    9753
  670.85    9702
  670.70    9595
  670.55    9581
  670.40    9817
  670.25    9812
  670.10    9852
  669.95    9736
  669.80    9533
  669.65    9663
  669.50    9761
  669.35    9660
  669.20    9785
  669.05    9560
  668.90    9678
  668.75    9748
  668.60    9560
  668.45    9710
  668.30    9848
  668.15    9676
  668.00    9808
  667.85    9824
  667.70    9596
  667.55    9771
  667.40    9704
  667.25    9629
  667.10    9632
  666.95    9668
  666.80    9582
  666.65    9741
  666.50    9619
  666.35    9482
  666.20    9650
  666.05    9564
  665.90    9609
  665.75    9735
  665.60    9429
  665.45    9646
  665.30    9624
  665.15    9285
  665.00    9581
  664.85    9640
  664.70    9510
  664.55    9612
  664.40    9543
  664.25    9617
  664.10    9532
  663.95    9518
  663.80    9645
  663.65    9702
  663.50    9732
  663.35    9659
  663.20    9578
  663.05    9615
  662.90    9649
  662.75    9482
  662.60    9532
  662.45    9338
  662.30    9761
  662.15    9607
  662.00    9614
  661.85    9478
  661.70    9553
  661.55    9458
  661.40    9550
  661.25    9479
  661.10    9421
  660.95    9511
  660.80    9416
  660.65    9551
  660.50    9449
  660.35    9595
  660.20    9489
  660.05    9571
  659.90    9369
  659.75    9322
  659.60    9444
  659.45    9748
  659.30    9276
  659.15    9479
  659.00    9329
  658.85    9640
  658.70    9512
  658.55    9475
  658.40    9566
  658.25    9222
  658.10    9394
  657.95    9384
  657.80    9431
  657.65    9338
  657.50    9424
  657.35    9327
  657.20    9402
  657.05    9336
  656.90    9367
  656.75    9372
  656.60    9329
  656.45    8983
  656.30    9406
  656.15    9319
  656.00    9493
  655.85    9392
  655.70    9153
  655.55    9255
  655.40    9318
  655.25    9312
  655.10    9139
  654.95    9024
  654.80    9110
  654.65    9280
  654.50    9231
  654.35    9017
  654.20    9185
  654.05    9104
  653.90    8953
  653.75    9135
  653.60    9059
  653.45    9086
  653.30    8919
  653.15    9000
  653.00    8949
  652.85    8847
  652.70    9020
  652.55    8926
  652.40    8837
  652.25    8818
  652.10    8739
  651.95    8546
  651.80    8990
  651.65    8963
  651.50    8836
  651.35    8858
  651.20    8846
  651.05    8767
  650.90    8935
  650.75    8870
  650.60    8754
  650.45    8884
  650.30    8989
  650.15    8844
  650.00    8990
  649.85    8874
  649.70    8745
  649.55    8630
  649.40    8900
  649.25    8993
  649.10    8876
  648.95    8826
  648.80    8687
  648.65    8936
  648.50    8868
  648.35    8818
  648.20    8725
  648.05    8982
  647.90    8609
  647.75    9098
  647.60    8837
  647.45    8926
  647.30    8942
  647.15    8952
  647.00    8886
  646.85    8833
  646.70    8977
  646.55    8830
  646.40    8831
  646.25    8820
  646.10    8774
  645.95    8852
  645.80    8803
  645.65    8863
  645.50    8717
  645.35    8933
  645.20    8694
  645.05    8792
  644.90    8832
  644.75    8731
  644.60    8858
  644.45    8590
  644.30    8771
  644.15    8857
  644.00    8750
  643.85    8775
  643.70    8868
  643.55    8588
  643.40    8756
  643.25    8937
  643.10    8826
  642.95    8851
  642.80    8717
  642.65    8995
  642.50    8873
  642.35    8718
  642.20    8795
  642.05    8859
  641.90    8738
  641.75    8790
  641.60    8608
  641.45    8747
  641.30    8701
  641.15    8737
  641.00    8812
  640.85    8448
  640.70    8497
  640.55    8571
  640.40    8700
  640.25    8868
  640.10    8501
  639.95    8428
  639.80    8537
  639.65    8553
  639.50    8645
  639.35    8622
  639.20    8631
  639.05    8442
  638.90    8522
  638.75    8455
  638.60    8496
  638.45    8538
  638.30    8498
  638.15    8602
  638.00    8568
  637.85    8494
  637.70    8549
  637.55    8549
  637.40    8454
  637.25    8557
  637.10    8480
  636.95    8247
  636.80    8692
  636.65    8557
  636.50    8500
  636.35    8608
  636.20    8476
  636.05    8448
  635.90    8696
  635.75    8483
  635.60    8579
  635.45    8694
  635.30    8480
  635.15    8517
  635.00    8448
  634.85    8509
  634.70    8503
  634.55    8518
  634.40    8613
  634.25    8640
  634.10    8602
  633.95    8551
  633.80    8578
  633.65    8598
  633.50    8439
  633.35    8686
  633.20    8641
  633.05    8509
  632.90    8300
  632.75    8478
  632.60    8502
  632.45    8394
  632.30    8530
  632.15    8674
  632.00    8506
  631.85    8461
  631.70    8504
  631.55    8532
  631.40    8792
  631.25    8641
  631.10    8685
  630.95    8504
  630.80    8433
  630.65    8534
  630.50    8558
  630.35    8691
  630.20    8549
  630.05    8426
  629.90    8413
  629.75    8560
  629.60    8391
  629.45    8493
  629.30    8583
  629.15    8517
  629.00    8488
  628.85    8628
  628.70    8393
  628.55    8559
  628.40    8446
  628.25    8493
  628.10    8575
  627.95    8507
  627.80    8447
  627.65    8385
  627.50    8610
  627.35    8429
  627.20    8400
  627.05    8671
  626.90    8450
  626.75    8446
  626.60    8574
  626.45    8441
  626.30    8312
  626.15    8480
  626.00    8731
  625.85    8474
  625.70    8421
  625.55    8444
  625.40    8487
  625.25    8414
  625.10    8567
  624.95    8494
  624.80    8349
  624.65    8412
  624.50    8483
  624.35    8420
  624.20    8571
  624.05    8529
  623.90    8429
  623.75    8466
  623.60    8339
  623.45    8358
  623.30    8465
  623.15    8550
  623.00    8360
  622.85    8551
  622.70    8387
  622.55    8377
  622.40    8428
  622.25    8374
  622.10    8491
  621.95    8428
  621.80    8275
  621.65    8480
  621.50    8337
  621.35    8370
  621.20    8384
  621.05    8419
  620.90    8380
  620.75    8336
  620.60    8310
  620.45    8349
  620.30    8230
  620.15    8350
  620.00    8334
  619.85    8260
  619.70    8338
  619.55    8272
  619.40    8318
  619.25    8309
  619.10    8307
  618.95    8123
  618.80    8319
  618.65    8199
  618.50    8381
  618.35    8294
  618.20    8299
  618.05    8243
  617.90    8147
  617.75    8323
  617.60    8216
  617.45    8270
  617.30    8229
  617.15    8286
  617.00    8158
  616.85    8235
  616.70    8182
  616.55    8089
  616.40    8317
  616.25    8191
  616.10    8205
  615.95    8319
  615.80    8072
  615.65    8306
  615.50    8185
  615.35    8326
  615.20    8151
  615.05    8267
  614.90    8353
  614.75    8396
  614.60    8370
  614.45    8099
  614.30    8203
  614.15    8388
  614.00    8311
  613.85    8290
  613.70    8376
  613.55    8447
  613.40    8211
  613.25    8253
  613.10    8435
  612.95    8312
  612.80    8479
  612.65    8337
  612.50    8550
  612.35    8546
  612.20    8310
  612.05    8293
  611.90    8396
  611.75    8397
  611.60    8422
  611.45    8599
  611.30    8625
  611.15    8393
  611.00    8327
  610.85    8420
  610.70    8520
  610.55    8423
  610.40    8482
  610.25    8670
  610.10    8664
  609.95    8592
  609.80    8661
  609.65    8505
  609.50    8632
  609.35    8377
  609.20    8499
  609.05    8541
  608.90    8454
  608.75    8507
  608.60    8443
  608.45    8545
  608.30    8574
  608.15    8473
  608.00    8372
  607.85    8537
  607.70    8408
  607.55    8332
  607.40    8515
  607.25    8318
  607.10    8407
  606.95    8427
  606.80    8224
  606.65    8363
  606.50    8370
  606.35    8372
  606.20    8391
  606.05    8227
  605.90    8556
  605.75    8299
  605.60    8392
  605.45    8510
  605.30    8285
  605.15    8448
  605.00    8270
  604.85    8367
  604.70    8428
  604.55    8331
  604.40    8309
  604.25    8291
  604.10    8350
  603.95    8267
  603.80    8431
  603.65    8289
  603.50    8372
  603.35    8095
  603.20    8385
  603.05    8346
  602.90    8421
  602.75    8157
  602.60    8192
  602.45    8214
  602.30    8262
  602.15    8106
  602.00    8231
  601.85    8368
  601.70    8349
  601.55    8150
  601.40    8199
  601.25    7924
  601.10    8095
  600.95    8041
  600.80    7838
  600.65    7931
  600.50    7952
  600.35    7830
  600.20    7922
